t / s;I / A
0.009000;0.006345
0.047000;0.004755
0.086000;0.004755
0.123000;0.005550
0.161000;0.006345
0.200000;0.006345
0.238000;0.007125
0.276000;0.006345
0.314000;0.007125
0.352000;0.007125
0.391000;0.006345
0.429000;0.008715
0.467000;0.007920
0.505000;0.008715
0.543000;0.007920
0.581000;0.007920
0.619000;0.007920
0.657000;0.009510
0.695000;0.007920
0.733000;0.007920
0.771000;0.007920
0.809000;0.007920
0.847000;0.008715
0.886000;0.009510
0.924000;0.008715
0.962000;0.007125
1.000000;0.007920
1.038000;0.007920
1.076000;0.008715
1.114000;0.007920
1.152000;0.009510
1.190000;0.008715
1.228000;0.010305
1.266000;0.008715
1.304000;0.008715
1.342000;0.009510
1.380000;0.009510
1.418000;0.009510
1.456000;0.011085
1.494000;0.009510
1.532000;0.010305
1.570000;0.010305
1.608000;0.011085
1.647000;0.010305
1.685000;0.008715
1.723000;0.011085
1.761000;0.009510
1.799000;0.010305
1.837000;0.008715
1.875000;0.011085
1.913000;0.011085
1.951000;0.010305
1.989000;0.010305
2.027000;0.010305
2.065000;0.009510
2.103000;0.009510
2.141000;0.010305
2.179000;0.009510
2.217000;0.010305
2.255000;0.010305
2.293000;0.010305
2.331000;0.010305
2.369000;0.011085
2.408000;0.010305
2.446000;0.011085
2.484000;0.009510
2.522000;0.011880
2.560000;0.011880
2.598000;0.011085
2.636000;0.010305
2.674000;0.009510
2.712000;0.010305
2.750000;0.009510
2.788000;0.009510
2.826000;0.011880
2.864000;0.010305
2.903000;0.010305
2.941000;0.011085
2.979000;0.009510
3.017000;0.010305
3.055000;0.010305
3.093000;0.010305
3.131000;0.010305
3.169000;0.009510
3.207000;0.010305
3.245000;0.010305
3.283000;0.011085
3.321000;0.011085
3.359000;0.010305
3.397000;0.010305
3.435000;0.011085
3.473000;0.009510
3.511000;0.010305
3.549000;0.010305
3.588000;0.008715
3.626000;0.010305
3.664000;0.008715
3.702000;0.009510
3.740000;0.010305
3.778000;0.010305
3.816000;0.010305
3.854000;0.010305
3.892000;0.012675
3.930000;0.011085
3.968000;0.011085
4.006000;0.010305
4.044000;0.009510
4.082000;0.010305
4.120000;0.010305
4.158000;0.010305
4.196000;0.011085
4.235000;0.011085
4.273000;0.011085
4.311000;0.011085
4.349000;0.010305
4.387000;0.008715
4.425000;0.009510
4.463000;0.010305
4.501000;0.011085
4.539000;0.011085
4.577000;0.011085
4.615000;0.011085
4.653000;0.010305
4.691000;0.009510
4.729000;0.011880
4.767000;0.011085
4.805000;0.010305
4.843000;0.010305
4.882000;0.009510
4.920000;0.011085
4.958000;0.010305
4.996000;0.010305
5.034000;0.011085
5.072000;0.010305
5.110000;0.010305
5.148000;0.011085
5.186000;0.011085
5.224000;0.010305
5.262000;0.008715
5.300000;0.011085
5.338000;0.011085
5.376000;0.011085
5.414000;0.010305
5.452000;0.011085
5.490000;0.010305
5.529000;0.010305
5.567000;0.011085
5.605000;0.011880
5.643000;0.009510
5.681000;0.011085
5.719000;0.011085
5.757000;0.010305
5.795000;0.011880
5.833000;0.011085
5.871000;0.011880
5.909000;0.011880
5.947000;0.010305
5.985000;0.011085
6.023000;0.011085
6.062000;0.010305
6.100000;0.011880
6.138000;0.012675
6.176000;0.011880
6.214000;0.012675
6.252000;0.011085
6.290000;0.011085
6.328000;0.011880
6.366000;0.011085
6.404000;0.011880
6.442000;0.011880
6.480000;0.011085
6.518000;0.011880
6.556000;0.013470
6.594000;0.011880
6.632000;0.012675
6.670000;0.011085
6.708000;0.011085
6.746000;0.011880
6.785000;0.011880
6.823000;0.012675
6.861000;0.011085
6.899000;0.011880
6.937000;0.011880
6.975000;0.011880
7.013000;0.010305
7.051000;0.011880
7.089000;0.011880
7.127000;0.011085
7.165000;0.011880
7.203000;0.011085
7.241000;0.011880
7.279000;0.011085
7.317000;0.011085
7.355000;0.009510
7.393000;0.011085
7.432000;0.008715
7.470000;0.011085
7.508000;0.011085
7.546000;0.010305
7.584000;0.011085
7.622000;0.010305
7.660000;0.011085
7.698000;0.011085
7.736000;0.010305
7.774000;0.009510
7.812000;0.011085
7.850000;0.011085
7.888000;0.010305
7.926000;0.011085
7.964000;0.010305
8.002000;0.011085
8.040000;0.011880
8.078000;0.011085
8.116000;0.011085
8.154000;0.011085
8.192000;0.010305
8.230000;0.009510
8.269000;0.011880
8.307000;0.011880
8.345000;0.011085
8.383000;0.011085
8.421000;0.010305
8.459000;0.012675
8.497000;0.012675
8.535000;0.011880
8.573000;0.012675
8.611000;0.011880
8.649000;0.011085
8.687000;0.011880
8.725000;0.011880
8.763000;0.011880
8.801000;0.013470
8.839000;0.011880
8.877000;0.011085
8.915000;0.011880
8.953000;0.011880
8.992000;0.010305
9.030000;0.011085
9.068000;0.011880
9.106000;0.012675
9.144000;0.011085
9.182000;0.011880
9.220000;0.011085
9.258000;0.011880
9.296000;0.011085
9.334000;0.011880
9.372000;0.010305
9.410000;0.010305
9.448000;0.011880
9.486000;0.011880
9.524000;0.011880
9.562000;0.011085
9.600000;0.011085
9.638000;0.011085
9.677000;0.011880
9.715000;0.011085
9.753000;0.010305
9.791000;0.012675
9.829000;0.010305
9.867000;0.011085
9.905000;0.009510
9.943000;0.010305
9.981000;0.011085
10.019000;0.010305
10.058000;0.010305
10.096000;0.011085
10.134000;0.011085
10.172000;0.010305
10.210000;0.011085
10.248000;0.009510
10.286000;0.011085
10.324000;0.011880
10.362000;0.011085
10.400000;0.010305
10.438000;0.011085
10.476000;0.010305
10.515000;0.011085
10.553000;0.011085
10.591000;0.011085
10.629000;0.011085
10.667000;0.010305
10.705000;0.010305
10.743000;0.011085
10.781000;0.011880
10.819000;0.012675
10.857000;0.011085
10.895000;0.010305
10.933000;0.012675
10.971000;0.011085
11.009000;0.011085
11.047000;0.011085
11.085000;0.011085
11.123000;0.009510
11.161000;0.010305
11.199000;0.010305
11.237000;0.011880
11.276000;0.011085
11.314000;0.011085
11.352000;0.010305
11.390000;0.011880
11.428000;0.011880
11.466000;0.010305
11.504000;0.010305
11.542000;0.010305
11.580000;0.011085
11.618000;0.011085
11.656000;0.011085
11.694000;0.010305
11.732000;0.010305
11.770000;0.009510
11.808000;0.011085
11.847000;0.011085
11.885000;0.011085
11.923000;0.010305
11.961000;0.011085
11.999000;0.011085
12.037000;0.011085
12.075000;0.011880
12.113000;0.011085
12.151000;0.011880
12.189000;0.011085
12.227000;0.011880
12.265000;0.012675
12.303000;0.011085
12.341000;0.011085
12.379000;0.011880
12.417000;0.011880
12.455000;0.012675
12.493000;0.011085
12.531000;0.011085
12.570000;0.011085
12.608000;0.011085
12.646000;0.011085
12.684000;0.011880
12.722000;0.011085
12.760000;0.011085
12.798000;0.011085
12.836000;0.010305
12.874000;0.010305
12.912000;0.011085
12.950000;0.011085
12.988000;0.011085
13.026000;0.010305
13.064000;0.011085
13.103000;0.011880
13.141000;0.011880
13.179000;0.011085
13.217000;0.011085
13.255000;0.011085
13.293000;0.012675
13.331000;0.012675
13.369000;0.011880
13.407000;0.011085
13.445000;0.011880
13.483000;0.011880
13.521000;0.011085
13.559000;0.011880
13.597000;0.011085
13.635000;0.011085
13.673000;0.012675
13.711000;0.011085
13.749000;0.012675
13.787000;0.010305
13.825000;0.011880
13.863000;0.011880
13.901000;0.011880
13.939000;0.012675
13.978000;0.011085
14.016000;0.011880
14.054000;0.010305
14.092000;0.011880
14.130000;0.010305
14.168000;0.009510
14.206000;0.010305
14.244000;0.010305
14.282000;0.011880
14.320000;0.011880
14.358000;0.011880
14.396000;0.011880
14.434000;0.011085
14.472000;0.010305
14.510000;0.011085
14.548000;0.010305
14.586000;0.010305
14.624000;0.010305
14.662000;0.008715
14.701000;0.011085
14.739000;0.010305
14.777000;0.011085
14.815000;0.010305
14.853000;0.010305
14.891000;0.011085
14.929000;0.009510
14.967000;0.009510
15.005000;0.010305
15.043000;0.011085
15.082000;0.010305
15.120000;0.011085
15.158000;0.010305
15.196000;0.010305
15.234000;0.010305
15.272000;0.010305
15.310000;0.010305
15.348000;0.011085
15.386000;0.010305
15.424000;0.011880
15.462000;0.011085
15.500000;0.011085
15.538000;0.010305
15.576000;0.011085
15.614000;0.011085
15.652000;0.011085
15.691000;0.011880
15.729000;0.011085
15.767000;0.011085
15.805000;0.011085
15.843000;0.010305
15.881000;0.011085
15.919000;0.011085
15.957000;0.011085
15.995000;0.012675
16.033000;0.011085
16.071000;0.011880
16.109000;0.012675
16.148000;0.012675
16.186000;0.011085
16.224000;0.011085
16.262000;0.011085
16.300000;0.011085
16.338000;0.011085
16.376000;0.011085
16.414000;0.011085
16.452000;0.011085
16.490000;0.011085
16.528000;0.011085
16.566000;0.011085
16.604000;0.011085
16.642000;0.009510
16.680000;0.011085
16.718000;0.011085
16.756000;0.011085
16.794000;0.009510
16.832000;0.011085
16.870000;0.010305
16.908000;0.011880
16.947000;0.011085
16.985000;0.011085
17.023000;0.010305
17.061000;0.011880
17.099000;0.011880
17.137000;0.011085
17.175000;0.011085
17.213000;0.010305
17.251000;0.010305
17.289000;0.011085
17.327000;0.011085
17.365000;0.010305
17.403000;0.011880
17.441000;0.010305
17.480000;0.034859
17.518000;0.032474
17.556000;0.110906
17.594000;7.603476
17.632000;10.692253
17.670000;10.224060
17.708000;9.862033
17.746000;9.710719
17.784000;9.683780
17.822000;9.687754
17.860000;9.679040
17.898000;9.641001
17.936000;9.642591
17.974000;9.660815
18.012000;9.659226
18.050000;9.663185
18.088000;9.678245
18.126000;9.703594
18.164000;9.737658
18.202000;9.771721
18.241000;9.806580
18.279000;9.838259
18.317000;9.873118
18.355000;9.903222
18.393000;9.937285
18.431000;9.964224
18.469000;9.982449
18.507000;9.992738
18.545000;9.993533
18.583000;9.991943
18.621000;9.987983
18.659000;9.987983
18.697000;9.987983
18.735000;9.985614
18.774000;9.986408
18.812000;9.987203
18.850000;9.987203
18.888000;9.987203
18.926000;9.987203
18.964000;9.985614
19.002000;9.987203
19.040000;9.987203
19.078000;9.985614
19.117000;9.985614
19.155000;9.988778
19.193000;9.987203
19.231000;9.986408
19.269000;9.986408
19.307000;9.984819
19.345000;9.985614
19.383000;9.986408
19.421000;9.985614
19.459000;9.987203
19.497000;9.986408
19.535000;9.986408
19.573000;9.985614
19.611000;9.984819
19.649000;9.985614
19.687000;9.987203
19.725000;9.986408
19.764000;9.987983
19.801000;9.988778
19.839000;9.987983
19.878000;9.987983
19.916000;9.987983
19.954000;9.987983
19.992000;9.985614
20.030000;9.986408
20.068000;9.986408
20.106000;9.986408
20.144000;9.987203
20.182000;9.985614
20.220000;9.985614
20.258000;9.984819
20.296000;9.987983
20.334000;9.985614
20.373000;9.985614
20.411000;9.985614
20.449000;9.987203
20.487000;9.987203
20.525000;9.985614
20.563000;9.985614
20.601000;9.987203
20.639000;9.984819
20.677000;9.985614
20.715000;9.986408
20.753000;9.986408
20.791000;9.984819
20.830000;9.987203
20.868000;9.986408
20.906000;9.987983
20.944000;9.987203
20.982000;9.988778
21.020000;9.987983
21.058000;9.988778
21.096000;9.987203
21.134000;9.987203
21.172000;9.988778
21.210000;9.987983
21.248000;9.987983
21.286000;9.987983
21.324000;9.987203
21.362000;9.986408
21.400000;9.987203
21.439000;9.987203
21.477000;9.985614
21.515000;9.987203
21.553000;9.986408
21.591000;9.985614
21.629000;9.985614
21.667000;9.987203
21.705000;9.986408
21.743000;9.987203
21.781000;9.987203
21.819000;9.986408
21.857000;9.986408
21.895000;9.986408
21.934000;9.984819
21.972000;9.987203
22.010000;9.984819
22.048000;9.987203
22.086000;9.986408
22.124000;9.986408
22.162000;9.988778
22.200000;9.987203
22.238000;9.985614
22.276000;9.987983
22.314000;9.987203
22.352000;9.987983
22.390000;9.987203
22.428000;9.986408
22.466000;9.984819
22.504000;9.366121
22.543000;-9.824009
22.581000;-10.043436
22.619000;-10.050576
22.657000;-10.040272
22.695000;-10.021267
22.733000;-10.002248
22.771000;-9.984024
22.809000;-9.974529
22.847000;-9.972939
22.885000;-9.974529
22.923000;-9.977694
22.961000;-9.979269
22.999000;-9.976104
23.037000;-9.979269
23.076000;-9.978489
23.114000;-9.977694
23.152000;-9.980859
23.190000;-9.979269
23.228000;-9.979269
23.266000;-9.977694
23.304000;-9.979269
23.342000;-9.980064
23.380000;-9.979269
23.418000;-9.979269
23.456000;-9.980064
23.494000;-9.979269
23.533000;-9.978489
23.571000;-9.978489
23.609000;-9.977694
23.647000;-9.980859
23.685000;-9.980064
23.723000;-9.979269
23.761000;-9.978489
23.799000;-9.979269
23.837000;-9.979269
23.876000;-9.979269
23.914000;-9.978489
23.952000;-9.979269
23.990000;-9.979269
24.028000;-9.978489
24.066000;-9.977694
24.104000;-9.978489
24.142000;-9.978489
24.180000;-9.979269
24.218000;-9.978489
24.256000;-9.977694
24.294000;-9.978489
24.332000;-9.980064
24.371000;-9.980064
24.409000;-9.980064
24.447000;-9.977694
24.485000;-9.977694
24.523000;-9.979269
24.561000;-9.979269
24.599000;-9.977694
24.637000;-9.977694
24.675000;-9.978489
24.713000;-9.977694
24.751000;-9.980064
24.789000;-9.977694
24.827000;-9.976899
24.866000;-9.978489
24.904000;-9.979269
24.942000;-9.979269
24.980000;-9.980064
25.018000;-9.977694
25.056000;-9.977694
25.094000;-9.979269
25.133000;-9.980064
25.171000;-9.978489
25.209000;-9.978489
25.247000;-9.979269
25.285000;-9.978489
25.323000;-9.980859
25.361000;-9.976899
25.399000;-9.979269
25.437000;-9.979269
25.476000;-9.976104
25.514000;-9.976899
25.552000;-9.978489
25.590000;-9.976899
25.628000;-9.976104
25.666000;-9.978489
25.704000;-9.976104
25.742000;-9.976899
25.780000;-9.977694
25.818000;-9.977694
25.856000;-9.977694
25.894000;-9.977694
25.932000;-9.979269
25.971000;-9.977694
26.009000;-9.976899
26.047000;-9.976104
26.085000;-9.977694
26.123000;-9.977694
26.161000;-9.979269
26.199000;-9.979269
26.237000;-9.980064
26.276000;-9.977694
26.314000;-9.977694
26.354000;-9.976104
26.392000;-9.977694
26.430000;-9.977694
26.468000;-9.978489
26.506000;-9.979269
26.544000;-9.978489
26.582000;-9.980064
26.620000;-9.977694
26.658000;-9.977694
26.696000;-9.976899
26.734000;-9.977694
26.772000;-9.977694
26.810000;-9.979269
26.848000;-9.979269
26.886000;-9.976899
26.924000;-9.978489
26.962000;-9.977694
27.000000;-9.979269
27.039000;-9.978489
27.077000;-9.979269
27.115000;-9.976899
27.153000;-9.977694
27.191000;-9.978489
27.229000;-9.978489
27.267000;-9.976104
27.305000;-9.977694
27.343000;-9.977694
27.381000;-9.976104
27.419000;-9.977694
27.457000;-9.979269
27.495000;-0.705049
27.534000;18.882747
27.572000;20.196204
27.610000;20.102727
27.648000;20.059154
27.686000;20.031435
27.724000;20.001331
27.762000;19.977557
27.800000;19.965677
27.838000;19.963307
27.876000;19.968062
27.914000;19.969637
27.952000;19.973597
27.990000;19.974392
28.029000;19.972022
28.067000;19.972802
28.105000;19.972022
28.143000;19.974392
28.181000;19.970432
28.219000;19.972022
28.257000;19.973597
28.295000;19.972802
28.333000;19.971227
28.371000;19.970432
28.410000;19.972022
28.448000;19.972022
28.486000;19.972022
28.524000;19.971227
28.562000;19.972802
28.600000;19.971227
28.638000;19.973597
28.676000;19.974392
28.714000;19.973597
28.752000;19.972802
28.790000;19.973597
28.828000;19.972022
28.866000;19.974392
28.904000;19.973597
28.942000;19.972802
28.981000;19.974392
29.019000;19.972802
29.057000;19.973597
29.095000;19.972802
29.133000;19.972022
29.171000;19.972802
29.209000;19.973597
29.247000;19.973597
29.285000;19.972022
29.323000;19.971227
29.361000;19.972802
29.399000;19.970432
29.438000;19.969637
29.476000;19.972022
29.514000;19.973597
29.552000;19.972022
29.590000;19.971227
29.628000;19.970432
29.666000;19.970432
29.704000;19.970432
29.742000;19.971227
29.780000;19.970432
29.818000;19.972802
29.856000;19.969637
29.895000;19.972802
29.932000;19.972802
29.970000;19.973597
30.008000;19.971227
30.047000;19.971227
30.085000;19.973597
30.123000;19.973597
30.161000;19.972022
30.199000;19.972022
30.237000;19.972022
30.275000;19.972022
30.313000;19.972022
30.351000;19.972802
30.389000;19.974392
30.427000;19.974392
30.465000;19.972022
30.503000;19.972022
30.541000;19.972802
30.580000;19.971227
30.618000;19.971227
30.656000;19.971227
30.694000;19.970432
30.732000;19.971227
30.770000;19.974392
30.808000;19.970432
30.846000;19.971227
30.884000;19.970432
30.922000;19.972022
30.960000;19.972802
30.998000;19.971227
31.036000;19.972022
31.074000;19.972022
31.113000;19.973597
31.151000;19.970432
31.189000;19.972802
31.227000;19.975187
31.265000;19.972802
31.303000;19.974392
31.341000;19.974392
31.379000;19.972022
31.417000;19.974392
31.455000;19.972802
31.494000;19.972802
31.532000;19.974392
31.570000;19.972022
31.608000;19.974392
31.646000;19.974392
31.684000;19.972802
31.722000;19.974392
31.760000;19.972802
31.798000;19.972802
31.836000;19.972802
31.874000;19.974392
31.912000;19.974392
31.950000;19.974392
31.988000;19.974392
32.026000;19.972022
32.064000;19.972802
32.102000;19.972802
32.140000;19.973597
32.178000;19.973597
32.217000;19.971227
32.255000;19.972802
32.293000;19.972802
32.331000;19.972802
32.369000;19.973597
32.407000;19.975187
32.445000;19.972802
32.483000;19.972802
32.521000;19.972022
32.559000;-14.395767
32.597000;-20.039385
32.635000;-20.057609
32.673000;-20.048099
32.711000;-20.035425
32.749000;-20.016405
32.787000;-19.999771
32.826000;-19.984727
32.864000;-19.973627
32.902000;-19.968092
32.940000;-19.963337
32.978000;-19.966502
33.016000;-19.969667
33.054000;-19.968872
33.092000;-19.969667
33.130000;-19.969667
33.168000;-19.968872
33.206000;-19.971257
33.244000;-19.968872
33.282000;-19.968872
33.321000;-19.971257
33.359000;-19.968872
33.397000;-19.970462
33.435000;-19.968872
33.473000;-19.968092
33.511000;-19.970462
33.549000;-19.970462
33.587000;-19.969667
33.625000;-19.971257
33.663000;-19.969667
33.701000;-19.968092
33.739000;-19.972832
33.778000;-19.969667
33.816000;-19.970462
33.854000;-19.970462
33.892000;-19.971257
33.930000;-19.969667
33.968000;-19.970462
34.006000;-19.969667
34.044000;-19.969667
34.082000;-19.971257
34.120000;-19.969667
34.158000;-19.972052
34.196000;-19.971257
34.234000;-19.969667
34.272000;-19.968092
34.310000;-19.968872
34.348000;-19.969667
34.386000;-19.968872
34.424000;-19.970462
34.462000;-19.968872
34.501000;-19.969667
34.539000;-19.970462
34.577000;-19.969667
34.615000;-19.970462
34.653000;-19.970462
34.691000;-19.969667
34.729000;-19.968872
34.767000;-19.969667
34.805000;-19.970462
34.843000;-19.970462
34.881000;-19.971257
34.919000;-19.971257
34.957000;-19.969667
34.995000;-19.972052
35.034000;-19.969667
35.072000;-19.969667
35.110000;-19.972052
35.148000;-19.970462
35.186000;-19.970462
35.224000;-19.970462
35.262000;-19.968872
35.300000;-19.971257
35.338000;-19.969667
35.376000;-19.969667
35.414000;-19.969667
35.453000;-19.969667
35.491000;-19.969667
35.529000;-19.969667
35.567000;-19.969667
35.605000;-19.970462
35.643000;-19.971257
35.681000;-19.973627
35.719000;-19.969667
35.757000;-19.968872
35.795000;-19.969667
35.833000;-19.971257
35.871000;-19.968872
35.909000;-19.969667
35.947000;-19.970462
35.986000;-19.968872
36.024000;-19.970462
36.062000;-19.972832
36.100000;-19.972052
36.138000;-19.969667
36.176000;-19.971257
36.214000;-19.971257
36.252000;-19.969667
36.290000;-19.969667
36.328000;-19.970462
36.366000;-19.971257
36.404000;-19.971257
36.442000;-19.970462
36.480000;-19.971257
36.518000;-19.969667
36.556000;-19.969667
36.594000;-19.969667
36.633000;-19.969667
36.671000;-19.971257
36.709000;-19.971257
36.747000;-19.970462
36.785000;-19.970462
36.823000;-19.969667
36.861000;-19.969667
36.899000;-19.971257
36.937000;-19.971257
36.976000;-19.971257
37.014000;-19.972832
37.052000;-19.971257
37.090000;-19.971257
37.128000;-19.971257
37.166000;-19.972052
37.204000;-19.969667
37.242000;-19.970462
37.280000;-19.971257
37.318000;-19.970462
37.357000;-19.971257
37.395000;-19.970462
37.433000;-19.969667
37.471000;-19.972052
37.509000;-12.248115
37.547000;29.024430
37.585000;30.137464
37.623000;30.082791
37.662000;30.053482
37.700000;30.031298
37.738000;30.006744
37.776000;29.979805
37.814000;29.960005
37.852000;29.953676
37.890000;29.950496
37.928000;29.955251
37.966000;29.958416
38.004000;29.960005
38.042000;29.959210
38.080000;29.961595
38.118000;29.959210
38.156000;29.960800
38.194000;29.959210
38.233000;29.958416
38.270000;29.958416
38.308000;29.960005
38.346000;29.960005
38.385000;29.960005
38.423000;29.960005
38.461000;29.958416
38.499000;29.960005
38.537000;29.962375
38.575000;29.960005
38.613000;29.960800
38.651000;29.961595
38.689000;29.962375
38.727000;29.961595
38.765000;29.960005
38.803000;29.961595
38.841000;29.961595
38.879000;29.961595
38.917000;29.963170
38.955000;29.962375
38.994000;29.961595
39.032000;29.961595
39.070000;29.960005
39.108000;29.962375
39.146000;29.963170
39.184000;29.962375
39.222000;29.963170
39.260000;29.961595
39.298000;29.960800
39.336000;29.960800
39.374000;29.961595
